# wavelength     radiance
#         nm   uW/cm^2/nm
701 x 2
[
   1724.1379 2.027200e+02
   1723.8409 2.006610e+02
   1723.5439 1.988060e+02
   1723.2469 1.984020e+02
   1722.9500 1.999930e+02
   1722.6530 2.020690e+02
   1722.3560 2.043350e+02
   1722.0601 2.060700e+02
   1721.7629 2.062940e+02
   1721.4670 2.053190e+02
   1721.1700 2.048910e+02
   1720.8740 2.050580e+02
   1720.5780 2.052020e+02
   1720.2820 2.056700e+02
   1719.9860 2.065140e+02
   1719.6899 2.072020e+02
   1719.3950 2.075130e+02
   1719.0990 2.080570e+02
   1718.8040 2.084200e+02
   1718.5081 2.083150e+02
   1718.2130 2.080550e+02
   1717.9180 2.081520e+02
   1717.6230 2.082550e+02
   1717.3280 2.083940e+02
   1717.0330 2.085900e+02
   1716.7380 2.087510e+02
   1716.4430 2.087460e+02
   1716.1490 2.089020e+02
   1715.8540 2.094990e+02
   1715.5601 2.102970e+02
   1715.2660 2.108620e+02
   1714.9720 2.111020e+02
   1714.6780 2.111860e+02
   1714.3840 2.111880e+02
   1714.0900 2.111910e+02
   1713.7960 2.112250e+02
   1713.5020 2.111820e+02
   1713.2090 2.111180e+02
   1712.9150 2.110760e+02
   1712.6219 2.106610e+02
   1712.3290 2.082550e+02
   1712.0360 2.042630e+02
   1711.7430 2.009360e+02
   1711.4500 1.997620e+02
   1711.1570 2.000490e+02
   1710.8640 2.025710e+02
   1710.5710 2.066940e+02
   1710.2791 2.098400e+02
   1709.9860 2.104140e+02
   1709.6940 2.099550e+02
   1709.4020 2.096810e+02
   1709.1090 2.094170e+02
   1708.8180 2.086190e+02
   1708.5260 2.077710e+02
   1708.2340 2.073440e+02
   1707.9420 2.071100e+02
   1707.6500 2.070780e+02
   1707.3590 2.082590e+02
   1707.0670 2.100340e+02
   1706.7760 2.110280e+02
   1706.4850 2.113040e+02
   1706.1930 2.117100e+02
   1705.9020 2.121990e+02
   1705.6110 2.125000e+02
   1705.3210 2.130400e+02
   1705.0300 2.137180e+02
   1704.7390 2.139990e+02
   1704.4490 2.136990e+02
   1704.1580 2.131430e+02
   1703.8680 2.124590e+02
   1703.5780 2.114030e+02
   1703.2870 2.105380e+02
   1702.9969 2.104740e+02
   1702.7070 2.111980e+02
   1702.4170 2.116650e+02
   1702.1281 2.120960e+02
   1701.8380 2.126070e+02
   1701.5480 2.128620e+02
   1701.2590 2.125890e+02
   1700.9700 2.125160e+02
   1700.6801 2.128370e+02
   1700.3910 2.131390e+02
   1700.1021 2.135110e+02
   1699.8130 2.140110e+02
   1699.5240 2.147970e+02
   1699.2350 2.156000e+02
   1698.9470 2.162780e+02
   1698.6580 2.166860e+02
   1698.3700 2.169020e+02
   1698.0811 2.169490e+02
   1697.7930 2.168200e+02
   1697.5050 2.167590e+02
   1697.2170 2.166960e+02
   1696.9280 2.167940e+02
   1696.6410 2.169420e+02
   1696.3530 2.172770e+02
   1696.0649 2.176000e+02
   1695.7780 2.179550e+02
   1695.4900 2.182160e+02
   1695.2030 2.183870e+02
   1694.9150 2.184100e+02
   1694.6281 2.184580e+02
   1694.3409 2.185230e+02
   1694.0540 2.185090e+02
   1693.7670 2.185070e+02
   1693.4800 2.186660e+02
   1693.1930 2.189300e+02
   1692.9070 2.191850e+02
   1692.6200 2.194070e+02
   1692.3340 2.195470e+02
   1692.0470 2.195740e+02
   1691.7610 2.194450e+02
   1691.4750 2.192430e+02
   1691.1890 2.191580e+02
   1690.9030 2.192440e+02
   1690.6169 2.191490e+02
   1690.3311 2.180000e+02
   1690.0460 2.163090e+02
   1689.7600 2.150290e+02
   1689.4750 2.147900e+02
   1689.1890 2.150820e+02
   1688.9041 2.164490e+02
   1688.6190 2.180070e+02
   1688.3340 2.188270e+02
   1688.0490 2.184300e+02
   1687.7640 2.179230e+02
   1687.4790 2.176200e+02
   1687.1940 2.178240e+02
   1686.9100 2.178740e+02
   1686.6250 2.177710e+02
   1686.3409 2.176180e+02
   1686.0560 2.176970e+02
   1685.7720 2.177260e+02
   1685.4880 2.181580e+02
   1685.2040 2.187910e+02
   1684.9200 2.190960e+02
   1684.6360 2.188720e+02
   1684.3521 2.184310e+02
   1684.0690 2.177580e+02
   1683.7850 2.169390e+02
   1683.5020 2.161370e+02
   1683.2180 2.152480e+02
   1682.9351 2.138760e+02
   1682.6520 2.124540e+02
   1682.3690 2.110400e+02
   1682.0861 2.090890e+02
   1681.8030 2.067550e+02
   1681.5200 2.051820e+02
   1681.2371 2.043730e+02
   1680.9550 2.041420e+02
   1680.6720 2.052000e+02
   1680.3900 2.075790e+02
   1680.1071 2.101990e+02
   1679.8250 2.127470e+02
   1679.5430 2.150750e+02
   1679.2610 2.167430e+02
   1678.9790 2.176860e+02
   1678.6970 2.185200e+02
   1678.4160 2.193710e+02
   1678.1340 2.202860e+02
   1677.8521 2.212110e+02
   1677.5710 2.215160e+02
   1677.2889 2.211860e+02
   1677.0081 2.207510e+02
   1676.7271 2.206010e+02
   1676.4460 2.194650e+02
   1676.1650 2.182060e+02
   1675.8840 2.177790e+02
   1675.6030 2.184410e+02
   1675.3230 2.189370e+02
   1675.0420 2.202740e+02
   1674.7610 2.222930e+02
   1674.4810 2.240010e+02
   1674.2010 2.246020e+02
   1673.9200 2.247210e+02
   1673.6400 2.245040e+02
   1673.3600 2.237980e+02
   1673.0800 2.220250e+02
   1672.8000 2.196560e+02
   1672.5210 2.180360e+02
   1672.2410 2.183010e+02
   1671.9611 2.196610e+02
   1671.6820 2.219680e+02
   1671.4020 2.246950e+02
   1671.1230 2.269840e+02
   1670.8440 2.279780e+02
   1670.5649 2.284200e+02
   1670.2860 2.288420e+02
   1670.0070 2.292330e+02
   1669.7280 2.293620e+02
   1669.4490 2.284480e+02
   1669.1700 2.266010e+02
   1668.8920 2.248080e+02
   1668.6130 2.237240e+02
   1668.3350 2.231590e+02
   1668.0570 2.236930e+02
   1667.7780 2.253760e+02
   1667.5000 2.270680e+02
   1667.2220 2.279950e+02
   1666.9440 2.284510e+02
   1666.6670 2.284230e+02
   1666.3890 2.281130e+02
   1666.1110 2.279470e+02
   1665.8340 2.279860e+02
   1665.5560 2.281600e+02
   1665.2791 2.286880e+02
   1665.0020 2.295190e+02
   1664.7240 2.301760e+02
   1664.4470 2.305420e+02
   1664.1700 2.307680e+02
   1663.8929 2.310330e+02
   1663.6169 2.311960e+02
   1663.3400 2.311840e+02
   1663.0630 2.313300e+02
   1662.7870 2.317240e+02
   1662.5100 2.322790e+02
   1662.2340 2.327540e+02
   1661.9580 2.333540e+02
   1661.6820 2.339490e+02
   1661.4060 2.344300e+02
   1661.1300 2.346850e+02
   1660.8540 2.347290e+02
   1660.5780 2.345250e+02
   1660.3020 2.340940e+02
   1660.0270 2.333090e+02
   1659.7510 2.323700e+02
   1659.4760 2.317140e+02
   1659.2000 2.315670e+02
   1658.9250 2.318900e+02
   1658.6500 2.326580e+02
   1658.3750 2.334820e+02
   1658.1000 2.340020e+02
   1657.8250 2.341840e+02
   1657.5500 2.342830e+02
   1657.2750 2.342620e+02
   1657.0010 2.342350e+02
   1656.7260 2.343790e+02
   1656.4520 2.346050e+02
   1656.1770 2.345520e+02
   1655.9030 2.342670e+02
   1655.6290 2.338250e+02
   1655.3550 2.332240e+02
   1655.0811 2.326400e+02
   1654.8070 2.324430e+02
   1654.5330 2.326940e+02
   1654.2600 2.333180e+02
   1653.9860 2.341460e+02
   1653.7130 2.342600e+02
   1653.4390 2.337640e+02
   1653.1660 2.333140e+02
   1652.8929 2.334830e+02
   1652.6190 2.334490e+02
   1652.3459 2.338050e+02
   1652.0730 2.343330e+02
   1651.8010 2.337940e+02
   1651.5280 2.322550e+02
   1651.2550 2.312970e+02
   1650.9821 2.315710e+02
   1650.7100 2.319180e+02
   1650.4370 2.330390e+02
   1650.1650 2.343790e+02
   1649.8929 2.342800e+02
   1649.6200 2.326560e+02
   1649.3490 2.314960e+02
   1649.0760 2.314090e+02
   1648.8051 2.314760e+02
   1648.5330 2.325170e+02
   1648.2610 2.340930e+02
   1647.9900 2.352630e+02
   1647.7180 2.352570e+02
   1647.4470 2.352890e+02
   1647.1750 2.352230e+02
   1646.9041 2.351230e+02
   1646.6331 2.348790e+02
   1646.3621 2.349110e+02
   1646.0900 2.347820e+02
   1645.8199 2.339500e+02
   1645.5490 2.327120e+02
   1645.2780 2.318970e+02
   1645.0070 2.313210e+02
   1644.7371 2.303090e+02
   1644.4659 2.300710e+02
   1644.1960 2.308870e+02
   1643.9260 2.317860e+02
   1643.6560 2.321990e+02
   1643.3850 2.330120e+02
   1643.1150 2.336760e+02
   1642.8450 2.332950e+02
   1642.5760 2.320770e+02
   1642.3060 2.308140e+02
   1642.0360 2.295870e+02
   1641.7670 2.286910e+02
   1641.4969 2.282580e+02
   1641.2280 2.285270e+02
   1640.9580 2.289780e+02
   1640.6890 2.296240e+02
   1640.4200 2.300840e+02
   1640.1510 2.306560e+02
   1639.8820 2.310810e+02
   1639.6130 2.312990e+02
   1639.3440 2.297040e+02
   1639.0760 2.277140e+02
   1638.8070 2.263590e+02
   1638.5380 2.269500e+02
   1638.2700 2.283750e+02
   1638.0020 2.316340e+02
   1637.7330 2.340960e+02
   1637.4650 2.351450e+02
   1637.1970 2.346700e+02
   1636.9290 2.351060e+02
   1636.6610 2.359140e+02
   1636.3929 2.380730e+02
   1636.1260 2.408640e+02
   1635.8580 2.431110e+02
   1635.5900 2.438110e+02
   1635.3230 2.440140e+02
   1635.0560 2.441520e+02
   1634.7880 2.438190e+02
   1634.5210 2.424850e+02
   1634.2540 2.410070e+02
   1633.9871 2.400990e+02
   1633.7200 2.396770e+02
   1633.4530 2.396760e+02
   1633.1860 2.409840e+02
   1632.9200 2.430890e+02
   1632.6530 2.446220e+02
   1632.3870 2.451910e+02
   1632.1200 2.456250e+02
   1631.8540 2.459860e+02
   1631.5880 2.461390e+02
   1631.3210 2.461800e+02
   1631.0551 2.464100e+02
   1630.7889 2.465570e+02
   1630.5229 2.461430e+02
   1630.2581 2.453290e+02
   1629.9919 2.449660e+02
   1629.7260 2.455460e+02
   1629.4611 2.464680e+02
   1629.1949 2.477520e+02
   1628.9301 2.489720e+02
   1628.6650 2.497950e+02
   1628.3990 2.499370e+02
   1628.1340 2.499010e+02
   1627.8690 2.499210e+02
   1627.6040 2.499030e+02
   1627.3390 2.495260e+02
   1627.0740 2.488830e+02
   1626.8101 2.482870e+02
   1626.5450 2.480340e+02
   1626.2810 2.477780e+02
   1626.0160 2.477840e+02
   1625.7520 2.478250e+02
   1625.4880 2.474300e+02
   1625.2240 2.466800e+02
   1624.9590 2.463390e+02
   1624.6949 2.468560e+02
   1624.4320 2.477990e+02
   1624.1680 2.492590e+02
   1623.9041 2.505260e+02
   1623.6400 2.510460e+02
   1623.3770 2.507450e+02
   1623.1130 2.501630e+02
   1622.8500 2.489710e+02
   1622.5861 2.473610e+02
   1622.3230 2.462280e+02
   1622.0601 2.454470e+02
   1621.7970 2.448850e+02
   1621.5341 2.439060e+02
   1621.2710 2.429140e+02
   1621.0081 2.404430e+02
   1620.7450 2.384500e+02
   1620.4830 2.375670e+02
   1620.2200 2.393250e+02
   1619.9580 2.416370e+02
   1619.6960 2.451640e+02
   1619.4330 2.478900e+02
   1619.1710 2.494020e+02
   1618.9091 2.493470e+02
   1618.6470 2.496390e+02
   1618.3850 2.501690e+02
   1618.1230 2.503170e+02
   1617.8610 2.496380e+02
   1617.5990 2.478960e+02
   1617.3380 2.459100e+02
   1617.0760 2.437780e+02
   1616.8149 2.419430e+02
   1616.5540 2.401900e+02
   1616.2920 2.393390e+02
   1616.0310 2.395160e+02
   1615.7700 2.408180e+02
   1615.5090 2.433150e+02
   1615.2480 2.465950e+02
   1614.9871 2.493390e+02
   1614.7260 2.506150e+02
   1614.4659 2.508660e+02
   1614.2050 2.505520e+02
   1613.9449 2.503860e+02
   1613.6840 2.507320e+02
   1613.4240 2.514000e+02
   1613.1630 2.518550e+02
   1612.9030 2.511390e+02
   1612.6429 2.498850e+02
   1612.3831 2.486910e+02
   1612.1230 2.480770e+02
   1611.8630 2.477440e+02
   1611.6040 2.477930e+02
   1611.3440 2.475660e+02
   1611.0840 2.469280e+02
   1610.8250 2.449160e+02
   1610.5649 2.421740e+02
   1610.3060 2.402200e+02
   1610.0470 2.405090e+02
   1609.7870 2.427200e+02
   1609.5280 2.460390e+02
   1609.2690 2.500500e+02
   1609.0100 2.535860e+02
   1608.7520 2.555380e+02
   1608.4930 2.559370e+02
   1608.2340 2.562130e+02
   1607.9760 2.564680e+02
   1607.7170 2.562710e+02
   1607.4590 2.553780e+02
   1607.2000 2.534080e+02
   1606.9420 2.517170e+02
   1606.6840 2.507270e+02
   1606.4260 2.512470e+02
   1606.1680 2.523830e+02
   1605.9100 2.543240e+02
   1605.6520 2.556130e+02
   1605.3940 2.558060e+02
   1605.1360 2.547660e+02
   1604.8790 2.541360e+02
   1604.6210 2.543660e+02
   1604.3640 2.553280e+02
   1604.1071 2.562220e+02
   1603.8490 2.570980e+02
   1603.5920 2.575010e+02
   1603.3350 2.574390e+02
   1603.0780 2.567350e+02
   1602.8210 2.565230e+02
   1602.5640 2.564480e+02
   1602.3070 2.564840e+02
   1602.0510 2.559720e+02
   1601.7939 2.554230e+02
   1601.5370 2.541480e+02
   1601.2810 2.534260e+02
   1601.0250 2.535140e+02
   1600.7679 2.550740e+02
   1600.5120 2.568660e+02
   1600.2560 2.591370e+02
   1600.0000 2.599020e+02
   1599.7440 2.597770e+02
   1599.4880 2.588180e+02
   1599.2321 2.588050e+02
   1598.9771 2.591970e+02
   1598.7209 2.608260e+02
   1598.4650 2.627180e+02
   1598.2100 2.644550e+02
   1597.9550 2.648350e+02
   1597.6990 2.641790e+02
   1597.4440 2.626940e+02
   1597.1890 2.592040e+02
   1596.9340 2.557390e+02
   1596.6790 2.522300e+02
   1596.4240 2.512390e+02
   1596.1689 2.514900e+02
   1595.9139 2.546130e+02
   1595.6600 2.580910e+02
   1595.4050 2.619340e+02
   1595.1510 2.640400e+02
   1594.8960 2.654300e+02
   1594.6420 2.656070e+02
   1594.3879 2.650350e+02
   1594.1340 2.643790e+02
   1593.8800 2.639680e+02
   1593.6250 2.640200e+02
   1593.3719 2.641150e+02
   1593.1180 2.641770e+02
   1592.8640 2.641060e+02
   1592.6100 2.636020e+02
   1592.3571 2.622410e+02
   1592.1030 2.600130e+02
   1591.8500 2.571750e+02
   1591.5959 2.541110e+02
   1591.3430 2.510190e+02
   1591.0900 2.487300e+02
   1590.8370 2.474790e+02
   1590.5840 2.476180e+02
   1590.3311 2.479510e+02
   1590.0780 2.461980e+02
   1589.8250 2.430510e+02
   1589.5720 2.394530e+02
   1589.3199 2.383220e+02
   1589.0670 2.380770e+02
   1588.8149 2.415790e+02
   1588.5620 2.462460e+02
   1588.3101 2.521760e+02
   1588.0580 2.545750e+02
   1587.8060 2.566590e+02
   1587.5540 2.575270e+02
   1587.3020 2.591740e+02
   1587.0500 2.600940e+02
   1586.7980 2.619580e+02
   1586.5460 2.628760e+02
   1586.2939 2.636340e+02
   1586.0430 2.636210e+02
   1585.7910 2.643180e+02
   1585.5400 2.648650e+02
   1585.2889 2.657400e+02
   1585.0370 2.663070e+02
   1584.7860 2.656530e+02
   1584.5350 2.634750e+02
   1584.2841 2.614640e+02
   1584.0330 2.609220e+02
   1583.7820 2.614570e+02
   1583.5310 2.621400e+02
   1583.2810 2.627290e+02
   1583.0300 2.615920e+02
   1582.7791 2.597270e+02
   1582.5291 2.577010e+02
   1582.2780 2.577220e+02
   1582.0280 2.590200e+02
   1581.7780 2.620780e+02
   1581.5280 2.654320e+02
   1581.2780 2.681170e+02
   1581.0280 2.697610e+02
   1580.7780 2.697370e+02
   1580.5280 2.702180e+02
   1580.2780 2.697830e+02
   1580.0280 2.693230e+02
   1579.7791 2.689870e+02
   1579.5291 2.689500e+02
   1579.2800 2.680970e+02
   1579.0310 2.676520e+02
   1578.7810 2.668980e+02
   1578.5320 2.661980e+02
   1578.2830 2.649260e+02
   1578.0341 2.614420e+02
   1577.7850 2.550720e+02
   1577.5360 2.495600e+02
   1577.2870 2.454840e+02
   1577.0380 2.452460e+02
   1576.7900 2.492560e+02
   1576.5410 2.558380e+02
   1576.2920 2.618030e+02
   1576.0439 2.635390e+02
   1575.7960 2.630040e+02
   1575.5470 2.598080e+02
   1575.2990 2.568330e+02
   1575.0510 2.552620e+02
   1574.8030 2.558490e+02
   1574.5551 2.585040e+02
   1574.3070 2.629510e+02
   1574.0590 2.671960e+02
   1573.8120 2.698250e+02
   1573.5640 2.722090e+02
   1573.3170 2.719970e+02
   1573.0690 2.710460e+02
   1572.8220 2.708420e+02
   1572.5740 2.711650e+02
   1572.3270 2.722710e+02
   1572.0800 2.731680e+02
   1571.8330 2.741410e+02
   1571.5861 2.742730e+02
   1571.3390 2.741990e+02
   1571.0920 2.742070e+02
   1570.8450 2.740680e+02
   1570.5980 2.729880e+02
   1570.3521 2.713550e+02
   1570.1050 2.697150e+02
   1569.8590 2.687580e+02
   1569.6121 2.687730e+02
   1569.3660 2.691540e+02
   1569.1200 2.693820e+02
   1568.8740 2.689070e+02
   1568.6270 2.684560e+02
   1568.3810 2.677110e+02
   1568.1350 2.680700e+02
   1567.8900 2.694790e+02
   1567.6440 2.710380e+02
   1567.3979 2.722290e+02
   1567.1520 2.722110e+02
   1566.9070 2.712440e+02
   1566.6610 2.704610e+02
   1566.4160 2.702220e+02
   1566.1710 2.707510e+02
   1565.9260 2.714210e+02
   1565.6801 2.729260e+02
   1565.4351 2.738140e+02
   1565.1899 2.753110e+02
   1564.9449 2.756090e+02
   1564.7000 2.761450e+02
   1564.4561 2.747480e+02
   1564.2111 2.738960e+02
   1563.9659 2.721870e+02
   1563.7220 2.719500e+02
   1563.4771 2.722200e+02
   1563.2330 2.734110e+02
   1562.9880 2.743530e+02
   1562.7440 2.753760e+02
   1562.5000 2.757480e+02
   1562.2560 2.759630e+02
   1562.0120 2.768780e+02
   1561.7679 2.776000e+02
   1561.5240 2.783500e+02
   1561.2800 2.784860e+02
   1561.0370 2.784580e+02
   1560.7930 2.783270e+02
   1560.5490 2.773820e+02
   1560.3060 2.757700e+02
   1560.0620 2.742410e+02
   1559.8190 2.732880e+02
   1559.5760 2.731940e+02
   1559.3330 2.736290e+02
   1559.0900 2.746760e+02
   1558.8459 2.751750e+02
   1558.6040 2.757270e+02
   1558.3610 2.754790e+02
   1558.1180 2.757840e+02
   1557.8750 2.761990e+02
   1557.6320 2.772210e+02
   1557.3900 2.777030e+02
   1557.1470 2.780210e+02
   1556.9050 2.769610e+02
   1556.6630 2.755330e+02
   1556.4200 2.734190e+02
   1556.1780 2.724320e+02
   1555.9360 2.722090e+02
   1555.6940 2.732930e+02
   1555.4520 2.739760e+02
   1555.2100 2.751620e+02
   1554.9680 2.747650e+02
   1554.7260 2.746720e+02
   1554.4850 2.735800e+02
   1554.2430 2.730200e+02
   1554.0020 2.727700e+02
   1553.7600 2.735220e+02
   1553.5190 2.743040e+02
   1553.2770 2.759530e+02
   1553.0360 2.778750e+02
   1552.7950 2.795770e+02
   1552.5540 2.808830e+02
   1552.3130 2.813260e+02
   1552.0720 2.814930e+02
   1551.8311 2.815290e+02
   1551.5900 2.813600e+02
   1551.3500 2.801810e+02
   1551.1090 2.792210e+02
   1550.8690 2.776910e+02
   1550.6281 2.769960e+02
   1550.3879 2.765100e+02
   1550.1470 2.769180e+02
   1549.9070 2.771540e+02
   1549.6670 2.782920e+02
   1549.4270 2.790460e+02
   1549.1870 2.798520e+02
   1548.9470 2.800320e+02
   1548.7070 2.793320e+02
   1548.4670 2.784600e+02
   1548.2271 2.764320e+02
   1547.9880 2.754710e+02
   1547.7480 2.749540e+02
   1547.5081 2.763830e+02
   1547.2690 2.781770e+02
   1547.0300 2.807560e+02
   1546.7900 2.822960e+02
   1546.5510 2.839580e+02
   1546.3120 2.845530e+02
   1546.0730 2.849710e+02
   1545.8340 2.854010e+02
   1545.5950 2.857840e+02
   1545.3560 2.858230e+02
   1545.1169 2.857970e+02
   1544.8790 2.854690e+02
   1544.6400 2.852510e+02
   1544.4010 2.850200e+02
   1544.1630 2.851620e+02
   1543.9250 2.853320e+02
   1543.6860 2.855940e+02
   1543.4480 2.849900e+02
   1543.2100 2.842030e+02
   1542.9720 2.831170e+02
   1542.7340 2.825660e+02
   1542.4960 2.824240e+02
   1542.2581 2.825770e+02
   1542.0200 2.829210e+02
   1541.7820 2.830300e+02
   1541.5450 2.826460e+02
   1541.3070 2.817570e+02
   1541.0690 2.813320e+02
   1540.8320 2.806750e+02
   1540.5950 2.791710e+02
   1540.3571 2.781820e+02
   1540.1200 2.771500e+02
   1539.8831 2.777980e+02
   1539.6460 2.790490e+02
   1539.4091 2.817000e+02
   1539.1720 2.837060e+02
   1538.9351 2.853250e+02
   1538.6980 2.844160e+02
   1538.4620 2.831770e+02
]
