# wavelength     radiance
#         nm   uW/cm^2/nm
299 x 2
[
   2127.2070 9.750100e+01
   2126.7549 9.752200e+01
   2126.3020 9.755600e+01
   2125.8501 9.760900e+01
   2125.3979 9.764600e+01
   2124.9470 9.753300e+01
   2124.4961 9.742500e+01
   2124.0439 9.740200e+01
   2123.5930 9.758300e+01
   2123.1421 9.798100e+01
   2122.6919 9.828800e+01
   2122.2410 9.852800e+01
   2121.7910 9.873900e+01
   2121.3411 9.877700e+01
   2120.8911 9.862700e+01
   2120.4409 9.861400e+01
   2119.9910 9.872700e+01
   2119.5420 9.884800e+01
   2119.0930 9.900000e+01
   2118.6440 9.936300e+01
   2118.1951 9.951100e+01
   2117.7471 9.906700e+01
   2117.2981 9.883800e+01
   2116.8501 9.887500e+01
   2116.4021 9.899500e+01
   2115.9541 9.937400e+01
   2115.5071 1.000890e+02
   2115.0591 1.004760e+02
   2114.6121 1.006480e+02
   2114.1650 1.006650e+02
   2113.7180 1.006450e+02
   2113.2710 1.006890e+02
   2112.8250 1.007440e+02
   2112.3789 1.008190e+02
   2111.9331 1.009400e+02
   2111.4861 1.010440e+02
   2111.0410 1.008550e+02
   2110.5950 1.004420e+02
   2110.1499 1.002740e+02
   2109.7051 1.003110e+02
   2109.2600 1.004520e+02
   2108.8149 1.008490e+02
   2108.3701 1.014640e+02
   2107.9260 1.018310e+02
   2107.4810 1.020170e+02
   2107.0381 1.021520e+02
   2106.5940 1.022580e+02
   2106.1499 1.023630e+02
   2105.7070 1.024380e+02
   2105.2629 1.024900e+02
   2104.8201 1.025060e+02
   2104.3770 1.023780e+02
   2103.9341 1.021430e+02
   2103.4919 1.020830e+02
   2103.0500 1.021510e+02
   2102.6069 1.022350e+02
   2102.1650 1.023610e+02
   2101.7229 1.025320e+02
   2101.2820 1.026580e+02
   2100.8401 1.027080e+02
   2100.3989 1.026670e+02
   2099.9580 1.026300e+02
   2099.5171 1.027970e+02
   2099.0759 1.028470e+02
   2098.6360 1.027680e+02
   2098.1960 1.028390e+02
   2097.7549 1.029160e+02
   2097.3149 1.029210e+02
   2096.8760 1.028170e+02
   2096.4360 1.025910e+02
   2095.9971 1.024530e+02
   2095.5569 1.022890e+02
   2095.1179 1.022970e+02
   2094.6799 1.024930e+02
   2094.2410 1.027620e+02
   2093.8020 1.027580e+02
   2093.3640 1.023990e+02
   2092.9260 1.019940e+02
   2092.4880 1.019200e+02
   2092.0500 1.020880e+02
   2091.6130 1.025510e+02
   2091.1750 1.035190e+02
   2090.7380 1.042900e+02
   2090.3010 1.046290e+02
   2089.8640 1.048930e+02
   2089.4270 1.049960e+02
   2088.9910 1.050530e+02
   2088.5549 1.051370e+02
   2088.1189 1.051930e+02
   2087.6831 1.052950e+02
   2087.2471 1.053990e+02
   2086.8110 1.054180e+02
   2086.3760 1.054640e+02
   2085.9409 1.055120e+02
   2085.5061 1.053960e+02
   2085.0710 1.051910e+02
   2084.6360 1.048540e+02
   2084.2019 1.044820e+02
   2083.7671 1.044080e+02
   2083.3330 1.045670e+02
   2082.8989 1.048530e+02
   2082.4661 1.053140e+02
   2082.0320 1.056930e+02
   2081.5991 1.057680e+02
   2081.1660 1.057720e+02
   2080.7319 1.056790e+02
   2080.3000 1.054650e+02
   2079.8669 1.056110e+02
   2079.4341 1.059550e+02
   2079.0020 1.062530e+02
   2078.5701 1.066030e+02
   2078.1379 1.070900e+02
   2077.7061 1.073130e+02
   2077.2749 1.074080e+02
   2076.8430 1.075030e+02
   2076.4121 1.075980e+02
   2075.9810 1.077120e+02
   2075.5500 1.078270e+02
   2075.1189 1.079230e+02
   2074.6890 1.079980e+02
   2074.2590 1.080700e+02
   2073.8279 1.081170e+02
   2073.3979 1.080420e+02
   2072.9690 1.078310e+02
   2072.5391 1.077170e+02
   2072.1089 1.076570e+02
   2071.6799 1.073310e+02
   2071.2510 1.066600e+02
   2070.8220 1.066160e+02
   2070.3931 1.068160e+02
   2069.9651 1.070040e+02
   2069.5359 1.074500e+02
   2069.1079 1.082480e+02
   2068.6799 1.085510e+02
   2068.2520 1.086130e+02
   2067.8250 1.086720e+02
   2067.3970 1.087740e+02
   2066.9700 1.089960e+02
   2066.5430 1.092170e+02
   2066.1160 1.093100e+02
   2065.6890 1.093240e+02
   2065.2620 1.091120e+02
   2064.8359 1.081810e+02
   2064.4089 1.069760e+02
   2063.9829 1.066080e+02
   2063.5581 1.067340e+02
   2063.1321 1.071310e+02
   2062.7061 1.081860e+02
   2062.2810 1.092460e+02
   2061.8550 1.090190e+02
   2061.4309 1.085810e+02
   2061.0061 1.084930e+02
   2060.5811 1.085600e+02
   2060.1560 1.089570e+02
   2059.7319 1.097640e+02
   2059.3081 1.101610e+02
   2058.8840 1.102980e+02
   2058.4600 1.104260e+02
   2058.0371 1.105190e+02
   2057.6130 1.106310e+02
   2057.1899 1.108940e+02
   2056.7671 1.110450e+02
   2056.3440 1.111260e+02
   2055.9209 1.112180e+02
   2055.4980 1.112850e+02
   2055.0759 1.112820e+02
   2054.6541 1.112890e+02
   2054.2319 1.112120e+02
   2053.8101 1.109500e+02
   2053.3879 1.106640e+02
   2052.9670 1.106740e+02
   2052.5449 1.107610e+02
   2052.1240 1.109340e+02
   2051.7029 1.112560e+02
   2051.2820 1.116690e+02
   2050.8611 1.119620e+02
   2050.4409 1.121450e+02
   2050.0210 1.123130e+02
   2049.6001 1.125340e+02
   2049.1799 1.126840e+02
   2048.7600 1.126180e+02
   2048.3411 1.125730e+02
   2047.9210 1.125980e+02
   2047.5020 1.126730e+02
   2047.0830 1.128330e+02
   2046.6639 1.131240e+02
   2046.2450 1.133760e+02
   2045.8260 1.134880e+02
   2045.4080 1.135570e+02
   2044.9900 1.136320e+02
   2044.5720 1.136810e+02
   2044.1541 1.137350e+02
   2043.7360 1.138240e+02
   2043.3180 1.138780e+02
   2042.9010 1.138020e+02
   2042.4840 1.135790e+02
   2042.0670 1.134940e+02
   2041.6500 1.135670e+02
   2041.2330 1.136900e+02
   2040.8160 1.138590e+02
   2040.4000 1.140830e+02
   2039.9840 1.140910e+02
   2039.5680 1.133710e+02
   2039.1520 1.121150e+02
   2038.7360 1.114900e+02
   2038.3210 1.114900e+02
   2037.9050 1.117810e+02
   2037.4900 1.126430e+02
   2037.0750 1.139850e+02
   2036.6600 1.146650e+02
   2036.2450 1.143680e+02
   2035.8311 1.134770e+02
   2035.4160 1.131180e+02
   2035.0020 1.131710e+02
   2034.5880 1.134010e+02
   2034.1740 1.141050e+02
   2033.7600 1.151790e+02
   2033.3470 1.156840e+02
   2032.9330 1.157420e+02
   2032.5200 1.156980e+02
   2032.1071 1.154860e+02
   2031.6940 1.148800e+02
   2031.2820 1.142750e+02
   2030.8690 1.136840e+02
   2030.4570 1.134630e+02
   2030.0450 1.135680e+02
   2029.6331 1.139010e+02
   2029.2209 1.144550e+02
   2028.8090 1.152550e+02
   2028.3979 1.157530e+02
   2027.9860 1.160290e+02
   2027.5750 1.164690e+02
   2027.1639 1.167280e+02
   2026.7531 1.167850e+02
   2026.3420 1.168440e+02
   2025.9320 1.168350e+02
   2025.5210 1.166350e+02
   2025.1110 1.165550e+02
   2024.7010 1.166640e+02
   2024.2920 1.168000e+02
   2023.8820 1.170070e+02
   2023.4720 1.172330e+02
   2023.0630 1.172480e+02
   2022.6541 1.170110e+02
   2022.2450 1.163280e+02
   2021.8361 1.155720e+02
   2021.4270 1.152030e+02
   2021.0190 1.152440e+02
   2020.6100 1.156220e+02
   2020.2020 1.164940e+02
   2019.7939 1.175270e+02
   2019.3860 1.183460e+02
   2018.9780 1.187940e+02
   2018.5710 1.189440e+02
   2018.1630 1.189800e+02
   2017.7560 1.190000e+02
   2017.3490 1.190310e+02
   2016.9420 1.190980e+02
   2016.5360 1.192010e+02
   2016.1290 1.193390e+02
   2015.7230 1.194730e+02
   2015.3170 1.194930e+02
   2014.9100 1.193600e+02
   2014.5040 1.193370e+02
   2014.0990 1.194070e+02
   2013.6930 1.195080e+02
   2013.2880 1.196890e+02
   2012.8820 1.199790e+02
   2012.4771 1.201280e+02
   2012.0720 1.201680e+02
   2011.6680 1.202240e+02
   2011.2629 1.203530e+02
   2010.8590 1.204620e+02
   2010.4540 1.205650e+02
   2010.0500 1.206440e+02
   2009.6460 1.207320e+02
   2009.2430 1.208260e+02
   2008.8390 1.209400e+02
   2008.4360 1.210710e+02
   2008.0320 1.212410e+02
   2007.6290 1.213630e+02
   2007.2260 1.213010e+02
   2006.8230 1.209100e+02
   2006.4210 1.204390e+02
   2006.0179 1.203280e+02
   2005.6160 1.203870e+02
   2005.2140 1.204060e+02
   2004.8120 1.205320e+02
   2004.4100 1.207710e+02
   2004.0081 1.206230e+02
   2003.6071 1.203060e+02
   2003.2050 1.204450e+02
   2002.8040 1.209310e+02
   2002.4030 1.213620e+02
   2002.0020 1.217990e+02
   2001.6010 1.223210e+02
   2001.2010 1.225870e+02
   2000.8000 1.226710e+02
   2000.4000 1.227310e+02
]
