# wavelength     radiance
#         nm   uW/cm^2/nm
600 x 2
[
    787.3400 1.176070e+03
    787.2780 1.176780e+03
    787.2160 1.177660e+03
    787.1540 1.178590e+03
    787.0920 1.178880e+03
    787.0300 1.179640e+03
    786.9680 1.180560e+03
    786.9060 1.181990e+03
    786.8440 1.182940e+03
    786.7820 1.184230e+03
    786.7200 1.184320e+03
    786.6580 1.183260e+03
    786.5960 1.182080e+03
    786.5350 1.181160e+03
    786.4730 1.180260e+03
    786.4110 1.180340e+03
    786.3490 1.180710e+03
    786.2870 1.179020e+03
    786.2250 1.169830e+03
    786.1640 1.162450e+03
    786.1020 1.155020e+03
    786.0400 1.148560e+03
    785.9780 1.143970e+03
    785.9160 1.146810e+03
    785.8550 1.147290e+03
    785.7930 1.145880e+03
    785.7310 1.141780e+03
    785.6690 1.144120e+03
    785.6080 1.146900e+03
    785.5460 1.152030e+03
    785.4840 1.159220e+03
    785.4230 1.167950e+03
    785.3610 1.170120e+03
    785.2990 1.172020e+03
    785.2380 1.173360e+03
    785.1760 1.174220e+03
    785.1140 1.175020e+03
    785.0530 1.176410e+03
    784.9910 1.178580e+03
    784.9290 1.179710e+03
    784.8680 1.180920e+03
    784.8060 1.182520e+03
    784.7450 1.183060e+03
    784.6830 1.182810e+03
    784.6210 1.182740e+03
    784.5600 1.182290e+03
    784.4980 1.182870e+03
    784.4370 1.184330e+03
    784.3750 1.185710e+03
    784.3140 1.187030e+03
    784.2520 1.187910e+03
    784.1910 1.185040e+03
    784.1290 1.180920e+03
    784.0680 1.178130e+03
    784.0060 1.175990e+03
    783.9450 1.174350e+03
    783.8830 1.173690e+03
    783.8220 1.166470e+03
    783.7600 1.159310e+03
    783.6990 1.151030e+03
    783.6380 1.145220e+03
    783.5760 1.144210e+03
    783.5150 1.151410e+03
    783.4530 1.157240e+03
    783.3920 1.162470e+03
    783.3310 1.162230e+03
    783.2690 1.162880e+03
    783.2080 1.166340e+03
    783.1470 1.170460e+03
    783.0850 1.175290e+03
    783.0240 1.183170e+03
    782.9630 1.187140e+03
    782.9010 1.187450e+03
    782.8400 1.186570e+03
    782.7790 1.183990e+03
    782.7180 1.184690e+03
    782.6560 1.185890e+03
    782.5950 1.187390e+03
    782.5340 1.189320e+03
    782.4730 1.193160e+03
    782.4110 1.193990e+03
    782.3500 1.194340e+03
    782.2890 1.194170e+03
    782.2280 1.194620e+03
    782.1670 1.195080e+03
    782.1050 1.196010e+03
    782.0440 1.197070e+03
    781.9830 1.198290e+03
    781.9220 1.198800e+03
    781.8610 1.199390e+03
    781.8000 1.199120e+03
    781.7390 1.197380e+03
    781.6770 1.191990e+03
    781.6160 1.188340e+03
    781.5550 1.185200e+03
    781.4940 1.182320e+03
    781.4330 1.180120e+03
    781.3720 1.178620e+03
    781.3110 1.176570e+03
    781.2500 1.174070e+03
    781.1890 1.170630e+03
    781.1280 1.172070e+03
    781.0670 1.177590e+03
    781.0060 1.182230e+03
    780.9450 1.186230e+03
    780.8840 1.189670e+03
    780.8230 1.191570e+03
    780.7620 1.193370e+03
    780.7010 1.194940e+03
    780.6400 1.196440e+03
    780.5790 1.197770e+03
    780.5180 1.195780e+03
    780.4570 1.193080e+03
    780.3960 1.189660e+03
    780.3360 1.182060e+03
    780.2750 1.178050e+03
    780.2140 1.175180e+03
    780.1530 1.171850e+03
    780.0920 1.169090e+03
    780.0310 1.171670e+03
    779.9700 1.173860e+03
    779.9100 1.175960e+03
    779.8490 1.176730e+03
    779.7880 1.182070e+03
    779.7270 1.187730e+03
    779.6660 1.191870e+03
    779.6060 1.195920e+03
    779.5450 1.200610e+03
    779.4840 1.197570e+03
    779.4230 1.194600e+03
    779.3620 1.192100e+03
    779.3020 1.189220e+03
    779.2410 1.187130e+03
    779.1800 1.188520e+03
    779.1200 1.188620e+03
    779.0590 1.187570e+03
    778.9980 1.185550e+03
    778.9380 1.187040e+03
    778.8770 1.189620e+03
    778.8160 1.192180e+03
    778.7560 1.195000e+03
    778.6950 1.199040e+03
    778.6340 1.198900e+03
    778.5740 1.198030e+03
    778.5130 1.197160e+03
    778.4520 1.196310e+03
    778.3920 1.195430e+03
    778.3310 1.195030e+03
    778.2710 1.193950e+03
    778.2100 1.192880e+03
    778.1500 1.191700e+03
    778.0890 1.190240e+03
    778.0290 1.188360e+03
    777.9680 1.185490e+03
    777.9070 1.183230e+03
    777.8470 1.181390e+03
    777.7860 1.177130e+03
    777.7260 1.174040e+03
    777.6650 1.172390e+03
    777.6050 1.170240e+03
    777.5440 1.170360e+03
    777.4840 1.174040e+03
    777.4240 1.179340e+03
    777.3630 1.184770e+03
    777.3030 1.189380e+03
    777.2420 1.195160e+03
    777.1820 1.201480e+03
    777.1220 1.205400e+03
    777.0610 1.209140e+03
    777.0010 1.213730e+03
    776.9400 1.215720e+03
    776.8800 1.216240e+03
    776.8200 1.216980e+03
    776.7590 1.217550e+03
    776.6990 1.217380e+03
    776.6390 1.216310e+03
    776.5780 1.215320e+03
    776.5180 1.213500e+03
    776.4580 1.212320e+03
    776.3980 1.211970e+03
    776.3370 1.212320e+03
    776.2770 1.212570e+03
    776.2170 1.213370e+03
    776.1560 1.213570e+03
    776.0960 1.213790e+03
    776.0360 1.213990e+03
    775.9760 1.215240e+03
    775.9160 1.216970e+03
    775.8550 1.218860e+03
    775.7950 1.220620e+03
    775.7350 1.221670e+03
    775.6750 1.219220e+03
    775.6150 1.217190e+03
    775.5550 1.214870e+03
    775.4940 1.209310e+03
    775.4340 1.198990e+03
    775.3740 1.188940e+03
    775.3140 1.180020e+03
    775.2540 1.169460e+03
    775.1940 1.157130e+03
    775.1340 1.152620e+03
    775.0740 1.151120e+03
    775.0140 1.147220e+03
    774.9530 1.144770e+03
    774.8930 1.149950e+03
    774.8330 1.154940e+03
    774.7730 1.160980e+03
    774.7130 1.167230e+03
    774.6530 1.177710e+03
    774.5930 1.187580e+03
    774.5330 1.196060e+03
    774.4730 1.202850e+03
    774.4130 1.209660e+03
    774.3530 1.211540e+03
    774.2930 1.214970e+03
    774.2340 1.218660e+03
    774.1740 1.222180e+03
    774.1140 1.225960e+03
    774.0540 1.231050e+03
    773.9940 1.232380e+03
    773.9340 1.231710e+03
    773.8740 1.231160e+03
    773.8140 1.230900e+03
    773.7540 1.230680e+03
    773.6940 1.230580e+03
    773.6350 1.231490e+03
    773.5750 1.232110e+03
    773.5150 1.232360e+03
    773.4550 1.232210e+03
    773.3950 1.231690e+03
    773.3350 1.227150e+03
    773.2760 1.224410e+03
    773.2160 1.222160e+03
    773.1560 1.219210e+03
    773.0960 1.214900e+03
    773.0360 1.214880e+03
    772.9770 1.212790e+03
    772.9170 1.206700e+03
    772.8570 1.198480e+03
    772.7980 1.196320e+03
    772.7380 1.195280e+03
    772.6780 1.193430e+03
    772.6180 1.194390e+03
    772.5590 1.200000e+03
    772.4990 1.201100e+03
    772.4390 1.199870e+03
    772.3800 1.201820e+03
    772.3200 1.207350e+03
    772.2600 1.212670e+03
    772.2010 1.218160e+03
    772.1410 1.224590e+03
    772.0820 1.228930e+03
    772.0220 1.226580e+03
    771.9620 1.224230e+03
    771.9030 1.222820e+03
    771.8430 1.221110e+03
    771.7840 1.218670e+03
    771.7240 1.217360e+03
    771.6640 1.213540e+03
    771.6050 1.203540e+03
    771.5450 1.193710e+03
    771.4860 1.188970e+03
    771.4260 1.188950e+03
    771.3670 1.189890e+03
    771.3070 1.195640e+03
    771.2480 1.200400e+03
    771.1880 1.203150e+03
    771.1290 1.203310e+03
    771.0690 1.208120e+03
    771.0100 1.215030e+03
    770.9510 1.223280e+03
    770.8910 1.229350e+03
    770.8320 1.236220e+03
    770.7720 1.238130e+03
    770.7130 1.238300e+03
    770.6540 1.238910e+03
    770.5940 1.239390e+03
    770.5350 1.237510e+03
    770.4750 1.228700e+03
    770.4160 1.222370e+03
    770.3570 1.216680e+03
    770.2970 1.210870e+03
    770.2380 1.206770e+03
    770.1790 1.209710e+03
    770.1190 1.209780e+03
    770.0600 1.208650e+03
    770.0010 1.205600e+03
    769.9420 1.210160e+03
    769.8820 1.217250e+03
    769.8230 1.224690e+03
    769.7640 1.229310e+03
    769.7040 1.231940e+03
    769.6450 1.228920e+03
    769.5860 1.224690e+03
    769.5270 1.220850e+03
    769.4680 1.218040e+03
    769.4080 1.218330e+03
    769.3490 1.217490e+03
    769.2900 1.214980e+03
    769.2310 1.211580e+03
    769.1720 1.213470e+03
    769.1120 1.217050e+03
    769.0530 1.220400e+03
    768.9940 1.223780e+03
    768.9350 1.228450e+03
    768.8760 1.229660e+03
    768.8170 1.230970e+03
    768.7580 1.232610e+03
    768.6990 1.234550e+03
    768.6400 1.234680e+03
    768.5800 1.230790e+03
    768.5210 1.228080e+03
    768.4620 1.225610e+03
    768.4030 1.223030e+03
    768.3440 1.221780e+03
    768.2850 1.224370e+03
    768.2260 1.225710e+03
    768.1670 1.226160e+03
    768.1080 1.225890e+03
    768.0490 1.228970e+03
    767.9900 1.232910e+03
    767.9310 1.236850e+03
    767.8720 1.241920e+03
    767.8130 1.247770e+03
    767.7540 1.250260e+03
    767.6950 1.251570e+03
    767.6360 1.253320e+03
    767.5780 1.254500e+03
    767.5190 1.254150e+03
    767.4600 1.253390e+03
    767.4010 1.252720e+03
    767.3420 1.251660e+03
    767.2830 1.251220e+03
    767.2240 1.252670e+03
    767.1650 1.253950e+03
    767.1060 1.251080e+03
    767.0480 1.237410e+03
    766.9890 1.220360e+03
    766.9300 1.205930e+03
    766.8710 1.192710e+03
    766.8120 1.183200e+03
    766.7540 1.183370e+03
    766.6950 1.181950e+03
    766.6360 1.176250e+03
    766.5770 1.164990e+03
    766.5180 1.158140e+03
    766.4600 1.158730e+03
    766.4010 1.165810e+03
    766.3420 1.169090e+03
    766.2840 1.177850e+03
    766.2250 1.181570e+03
    766.1660 1.182700e+03
    766.1070 1.180550e+03
    766.0490 1.182670e+03
    765.9900 1.183940e+03
    765.9310 1.187560e+03
    765.8730 1.188580e+03
    765.8140 1.195330e+03
    765.7550 1.204230e+03
    765.6970 1.213320e+03
    765.6380 1.220230e+03
    765.5800 1.227350e+03
    765.5210 1.231760e+03
    765.4620 1.233510e+03
    765.4040 1.237480e+03
    765.3450 1.242860e+03
    765.2870 1.247360e+03
    765.2280 1.249990e+03
    765.1690 1.252560e+03
    765.1110 1.252880e+03
    765.0520 1.252980e+03
    764.9940 1.252790e+03
    764.9350 1.252680e+03
    764.8770 1.252830e+03
    764.8180 1.252990e+03
    764.7600 1.253000e+03
    764.7010 1.252900e+03
    764.6430 1.252420e+03
    764.5840 1.251120e+03
    764.5260 1.250150e+03
    764.4680 1.249210e+03
    764.4090 1.248540e+03
    764.3510 1.247970e+03
    764.2920 1.248070e+03
    764.2340 1.247780e+03
    764.1750 1.247530e+03
    764.1170 1.247360e+03
    764.0590 1.248360e+03
    764.0000 1.249640e+03
    763.9420 1.250780e+03
    763.8840 1.251890e+03
    763.8250 1.253340e+03
    763.7670 1.253870e+03
    763.7090 1.254200e+03
    763.6500 1.254680e+03
    763.5920 1.255260e+03
    763.5340 1.255740e+03
    763.4750 1.255990e+03
    763.4170 1.256500e+03
    763.3590 1.257250e+03
    763.3010 1.258040e+03
    763.2420 1.259120e+03
    763.1840 1.260260e+03
    763.1260 1.258820e+03
    763.0680 1.257850e+03
    763.0090 1.257060e+03
    762.9510 1.256430e+03
    762.8930 1.256490e+03
    762.8350 1.258850e+03
    762.7760 1.260630e+03
    762.7180 1.261730e+03
    762.6600 1.260580e+03
    762.6020 1.258320e+03
    762.5440 1.256470e+03
    762.4860 1.251140e+03
    762.4280 1.246990e+03
    762.3690 1.243850e+03
    762.3110 1.240030e+03
    762.2530 1.227930e+03
    762.1950 1.220220e+03
    762.1370 1.210280e+03
    762.0790 1.204370e+03
    762.0210 1.200410e+03
    761.9630 1.205760e+03
    761.9050 1.211290e+03
    761.8470 1.219160e+03
    761.7890 1.222980e+03
    761.7310 1.231790e+03
    761.6730 1.238060e+03
    761.6150 1.242610e+03
    761.5570 1.245910e+03
    761.4990 1.251050e+03
    761.4410 1.251290e+03
    761.3830 1.250060e+03
    761.3250 1.251450e+03
    761.2670 1.252790e+03
    761.2090 1.252180e+03
    761.1510 1.250680e+03
    761.0930 1.248520e+03
    761.0350 1.248540e+03
    760.9770 1.249610e+03
    760.9190 1.251770e+03
    760.8610 1.253460e+03
    760.8030 1.253350e+03
    760.7460 1.251170e+03
    760.6880 1.249020e+03
    760.6300 1.246040e+03
    760.5720 1.245960e+03
    760.5140 1.249180e+03
    760.4560 1.252520e+03
    760.3980 1.254260e+03
    760.3410 1.256070e+03
    760.2830 1.258090e+03
    760.2250 1.260250e+03
    760.1670 1.262330e+03
    760.1090 1.265130e+03
    760.0520 1.268090e+03
    759.9940 1.268730e+03
    759.9360 1.268200e+03
    759.8780 1.267860e+03
    759.8210 1.266940e+03
    759.7630 1.266510e+03
    759.7050 1.266810e+03
    759.6480 1.267300e+03
    759.5900 1.267010e+03
    759.5320 1.267610e+03
    759.4740 1.269110e+03
    759.4170 1.270630e+03
    759.3590 1.271640e+03
    759.3010 1.273340e+03
    759.2440 1.273500e+03
    759.1860 1.270540e+03
    759.1290 1.265780e+03
    759.0710 1.262560e+03
    759.0130 1.257670e+03
    758.9560 1.249130e+03
    758.8980 1.243150e+03
    758.8410 1.240390e+03
    758.7830 1.236100e+03
    758.7250 1.232690e+03
    758.6680 1.234740e+03
    758.6100 1.239540e+03
    758.5530 1.243690e+03
    758.4950 1.247080e+03
    758.4380 1.253960e+03
    758.3800 1.262200e+03
    758.3230 1.266930e+03
    758.2650 1.271850e+03
    758.2080 1.278740e+03
    758.1500 1.282660e+03
    758.0930 1.284030e+03
    758.0350 1.284840e+03
    757.9780 1.281640e+03
    757.9200 1.278430e+03
    757.8630 1.275630e+03
    757.8050 1.274390e+03
    757.7480 1.274820e+03
    757.6910 1.278160e+03
    757.6330 1.280740e+03
    757.5760 1.282500e+03
    757.5180 1.280040e+03
    757.4610 1.275970e+03
    757.4040 1.274410e+03
    757.3460 1.273730e+03
    757.2890 1.273340e+03
    757.2320 1.275910e+03
    757.1740 1.279550e+03
    757.1170 1.280220e+03
    757.0600 1.278920e+03
    757.0020 1.276650e+03
    756.9450 1.277990e+03
    756.8880 1.281070e+03
    756.8300 1.284610e+03
    756.7730 1.289710e+03
    756.7160 1.295610e+03
    756.6590 1.295910e+03
    756.6010 1.291190e+03
    756.5440 1.286370e+03
    756.4870 1.282280e+03
    756.4300 1.278620e+03
    756.3720 1.276370e+03
    756.3150 1.276760e+03
    756.2580 1.277820e+03
    756.2010 1.277070e+03
    756.1440 1.273270e+03
    756.0860 1.268680e+03
    756.0290 1.267450e+03
    755.9720 1.266620e+03
    755.9150 1.266520e+03
    755.8580 1.268650e+03
    755.8010 1.272140e+03
    755.7440 1.272830e+03
    755.6870 1.271390e+03
    755.6290 1.269860e+03
    755.5720 1.272570e+03
    755.5150 1.276390e+03
    755.4580 1.279640e+03
    755.4010 1.283210e+03
    755.3440 1.286330e+03
    755.2870 1.286080e+03
    755.2300 1.284700e+03
    755.1730 1.283500e+03
    755.1160 1.282670e+03
    755.0590 1.282450e+03
    755.0020 1.281860e+03
    754.9450 1.280820e+03
    754.8880 1.279270e+03
    754.8310 1.278080e+03
    754.7740 1.278120e+03
    754.7170 1.279140e+03
    754.6600 1.280730e+03
    754.6030 1.282630e+03
    754.5460 1.284030e+03
    754.4890 1.284760e+03
    754.4320 1.285410e+03
    754.3750 1.285840e+03
    754.3180 1.286450e+03
    754.2620 1.287010e+03
    754.2050 1.288200e+03
    754.1480 1.289480e+03
    754.0910 1.290580e+03
    754.0340 1.291600e+03
    753.9770 1.292710e+03
    753.9200 1.292670e+03
    753.8640 1.292490e+03
    753.8070 1.293000e+03
    753.7500 1.292750e+03
    753.6930 1.290310e+03
    753.6360 1.287220e+03
    753.5790 1.284910e+03
    753.5230 1.282530e+03
    753.4660 1.280820e+03
    753.4090 1.281430e+03
    753.3520 1.283610e+03
    753.2960 1.285150e+03
    753.2390 1.286010e+03
    753.1820 1.287410e+03
    753.1250 1.289490e+03
    753.0690 1.288880e+03
    753.0120 1.289560e+03
    752.9550 1.290790e+03
    752.8990 1.288200e+03
    752.8420 1.279640e+03
    752.7850 1.274560e+03
    752.7290 1.268530e+03
    752.6720 1.262480e+03
    752.6150 1.257840e+03
    752.5590 1.260310e+03
    752.5020 1.263460e+03
    752.4450 1.265900e+03
    752.3890 1.267500e+03
    752.3320 1.274290e+03
    752.2760 1.280270e+03
    752.2190 1.284510e+03
    752.1620 1.288450e+03
    752.1060 1.292910e+03
    752.0490 1.293340e+03
    751.9930 1.291020e+03
    751.9360 1.290070e+03
    751.8800 1.290220e+03
]
